#  Sbc SED of Coleman, Wu, and Weedman (1980)
#  Extended below 1400 A and beyond 10000 A by
#  Bolzonella, Miralles, and Pello (2000) using evolutionary models
#  of Bruzual and Charlot (1993)
#
#  nm             Flux/nm
#
   9.100000       7.762199
   9.400000       9.822993
   9.600000       11.380610
   9.800000       13.082520
   10.000000       14.936130
   10.200000       16.937720
   10.400000       19.087310
   10.600000       21.384890
   10.800000       23.830470
   11.000000       26.412940
   11.400000       31.988550
   11.800000       38.071030
   12.100000       42.917780
   12.500000       49.762430
   12.700000       53.314240
   12.800000       55.090160
   13.100000       60.602870
   13.200000       62.489770
   13.400000       66.263580
   13.700000       72.035280
   14.000000       77.843980
   14.300000       83.726670
   14.700000       91.607270
   15.100000       99.487860
   15.500000       107.294500
   15.900000       114.990100
   16.200000       120.650800
   16.600000       128.050400
   17.000000       135.191000
   17.300000       140.407700
   17.700000       147.141400
   18.000000       151.988200
   18.200000       155.096000
   18.600000       161.163700
   19.100000       168.267300
   19.400000       172.263100
   19.800000       177.368800
   20.200000       182.104600
   20.500000       185.434400
   21.000000       190.577100
   21.600000       196.089900
   22.000000       199.382700
   22.300000       201.639600
   22.700000       204.414400
   23.000000       206.412300
   23.400000       209.224200
   24.000000       212.517000
   24.600000       215.661800
   25.200000       222.358500
   25.700000       232.533000
   26.000000       230.683100
   26.400000       274.303800
   26.900000       286.032200
   27.400000       295.540700
   27.900000       266.793200
   28.400000       310.414000
   29.000000       332.686800
   29.600000       313.225800
   30.100000       305.456200
   30.800000       330.429900
   31.800000       326.064100
   32.800000       341.862300
   33.800000       334.351700
   34.800000       324.473200
   35.700000       422.888100
   36.600000       624.897700
   37.500000       612.688300
   38.500000       501.694100
   39.500000       719.982800
   40.500000       879.814500
   41.400000       867.975100
   42.200000       786.579400
   43.000000       749.581300
   44.100000       858.355600
   45.100000       866.495200
   46.000000       758.830800
   47.000000       764.750500
   48.000000       848.736100
   49.000000       710.733300
   50.000000       867.235200
   50.600000       730.712200
   51.200000       1232.036000
   52.000000       1161.740000
   53.000000       1057.775000
   54.000000       870.195000
   55.000000       849.476100
   56.000000       1091.074000
   57.000000       1205.768000
   58.000000       1155.820000
   59.000000       1164.330000
   60.000000       956.770600
   61.000000       943.821300
   62.000000       1169.510000
   63.000000       1092.553000
   64.000000       1175.429000
   65.000000       1119.562000
   65.800000       1015.967000
   66.500000       1133.251000
   67.500000       1177.649000
   68.500000       985.999000
   69.500000       1143.611000
   70.500000       900.163500
   71.600000       1155.080000
   72.600000       1148.421000
   73.500000       1139.911000
   74.500000       1091.074000
   75.500000       1071.835000
   76.500000       958.250500
   77.500000       1051.856000
   78.500000       964.910100
   79.500000       1020.777000
   80.500000       1026.327000
   81.500000       1018.187000
   82.500000       1026.327000
   83.500000       793.979000
   84.500000       980.079300
   85.500000       954.920700
   86.500000       978.969400
   87.500000       973.419600
   88.500000       969.349900
   89.500000       963.060200
   90.500000       929.762000
   91.500000       958.990500
   92.500000       2464.443000
   93.500000       4054.990000
   94.500000       5786.501000
   95.500000       6948.241000
   96.500000       7543.910000
   97.500000       2284.632000
   98.500000       5845.698000
   99.500000       5756.902000
   100.500000       7577.208000
   101.500000       7547.610000
   102.500000       4521.166000
   103.500000       6038.088000
   104.500000       9153.326000
   105.500000       8750.048000
   106.500000       7099.933000
   107.500000       7976.788000
   108.500000       6674.455000
   109.500000       8109.980000
   110.500000       7684.503000
   111.500000       7384.819000
   112.500000       6452.466000
   113.500000       7858.394000
   114.500000       7222.027000
   115.500000       7377.419000
   116.500000       7355.220000
   117.500000       4913.346000
   118.500000       6933.442000
   119.500000       5386.921000
   120.500000       4295.478000
   121.500000       3255.832000
   122.500000       5131.635000
   123.500000       6759.550000
   124.500000       7125.831000
   125.500000       6803.948000
   126.500000       6160.182000
   127.500000       7347.820000
   128.500000       7532.811000
   129.500000       6163.881000
   130.500000       6089.885000
   131.500000       7229.426000
   132.500000       6859.445000
   133.500000       6204.579000
   134.500000       6992.639000
   135.500000       6737.352000
   136.500000       6078.786000
   137.500000       6204.579000
   138.500000       6163.881000
   139.500000       4972.543000
   140.500000       5016.941000
   141.500000       5608.911000
   142.500000       5575.612000
   143.500000       5612.610000
   144.200000       5805.000000
   144.700000       5841.998000
   145.500000       5627.409000
   146.500000       5201.931000
   147.500000       5187.132000
   148.500000       5227.830000
   149.500000       5227.830000
   150.500000       4917.046000
   151.200000       4413.872000
   151.700000       4654.359000
   152.500000       4521.166000
   153.500000       3881.099000
   154.500000       3932.897000
   155.500000       3770.105000
   156.500000       3969.895000
   157.500000       4214.082000
   158.500000       4354.675000
   159.500000       4391.673000
   160.500000       4273.279000
   161.500000       4225.182000
   162.500000       4036.491000
   163.500000       4247.380000
   164.500000       4273.279000
   165.500000       4010.593000
   166.500000       4258.480000
   167.200000       3825.602000
   167.700000       4310.277000
   168.500000       4384.273000
   169.500000       4114.187000
   170.500000       3951.396000
   171.500000       3725.707000
   172.500000       3666.140000
   173.500000       3870.000000
   174.500000       3766.405000
   175.500000       3932.897000
   176.500000       3654.301000
   177.500000       3656.151000
   178.500000       3710.908000
   180.000000       3870.000000
   190.000000       3900.000000
   200.000000       3790.000000
   210.000000       3640.000000
   220.000000       3530.000000
   230.000000       3490.000000
   240.000000       3460.000000
   250.000000       3460.000000
   260.000000       3470.000000
   270.000000       3470.000000
   280.000000       3480.000000
   290.000000       3530.000000
   294.000000       3570.000000
   298.000000       3620.000000
   302.000000       3670.000000
   306.000000       3740.000000
   310.000000       3820.000000
   314.000000       3920.000000
   318.000000       4030.000000
   322.000000       4170.000000
   326.000000       4320.000000
   330.000000       4490.000000
   334.000000       4690.000000
   338.000000       4900.000000
   342.000000       5130.000000
   346.000000       5350.000000
   350.000000       5580.000000
   354.000000       5970.000000
   358.000000       5770.000000
   362.000000       5630.000000
   366.000000       5990.000000
   370.000000       6760.000000
   374.000000       7060.000000
   378.000000       6820.000000
   382.000000       7080.000000
   386.000000       7640.000000
   390.000000       7780.000000
   394.000000       7600.000000
   398.000000       8130.000000
   402.000000       9200.000000
   406.000000       9240.000000
   410.000000       8800.000000
   414.000000       9030.000000
   418.000000       9380.000000
   422.000000       9470.000000
   426.000000       9270.000000
   430.000000       8960.000000
   434.000000       8960.000000
   438.000000       9310.000000
   442.000000       9690.000000
   446.000000       9970.000000
   450.000000       10170.000000
   454.000000       10160.000000
   458.000000       10050.000000
   462.000000       10130.000000
   466.000000       10080.000000
   470.000000       9940.000000
   474.000000       10130.000000
   478.000000       10060.000000
   482.000000       9840.000000
   486.000000       9800.000000
   490.000000       9670.000000
   494.000000       9660.000000
   498.000000       9840.000000
   502.000000       9770.000000
   506.000000       9420.000000
   510.000000       9450.000000
   514.000000       9330.000000
   518.000000       9170.000000
   522.000000       9280.000000
   526.000000       9200.000000
   530.000000       9050.000000
   534.000000       8860.000000
   538.000000       9900.000000
   542.000000       9410.000000
   546.000000       9610.000000
   550.000000       9450.000000
   554.000000       9610.000000
   558.000000       9560.000000
   562.000000       9450.000000
   566.000000       9360.000000
   570.000000       9260.000000
   574.000000       9180.000000
   578.000000       9100.000000
   582.000000       9030.000000
   586.000000       8970.000000
   590.000000       8910.000000
   594.000000       8860.000000
   598.000000       8830.000000
   602.000000       8800.000000
   606.000000       8780.000000
   610.000000       8760.000000
   614.000000       8740.000000
   618.000000       8720.000000
   622.000000       8700.000000
   626.000000       8680.000000
   630.000000       8650.000000
   634.000000       8640.000000
   638.000000       8620.000000
   642.000000       8600.000000
   646.000000       8580.000000
   650.000000       8550.000000
   654.000000       8540.000000
   658.000000       8520.000000
   662.000000       8500.000000
   666.000000       8480.000000
   670.000000       8460.000000
   674.000000       8440.000000
   678.000000       8420.000000
   682.000000       8410.000000
   686.000000       8390.000000
   690.000000       8370.000000
   694.000000       8350.000000
   698.000000       8330.000000
   702.000000       8320.000000
   706.000000       8300.000000
   710.000000       8280.000000
   714.000000       8280.000000
   718.000000       8260.000000
   722.000000       8250.000000
   726.000000       8230.000000
   730.000000       8210.000000
   734.000000       8210.000000
   738.000000       8190.000000
   742.000000       8180.000000
   746.000000       8160.000000
   750.000000       8140.000000
   754.000000       8140.000000
   758.000000       8120.000000
   762.000000       8110.000000
   766.000000       8090.000000
   770.000000       8070.000000
   774.000000       8070.000000
   778.000000       8050.000000
   782.000000       8040.000000
   786.000000       8020.000000
   790.000000       8010.000000
   794.000000       8000.000000
   800.000000       7970.000000
   810.000000       7940.000000
   820.000000       7910.000000
   830.000000       7890.000000
   840.000000       7860.000000
   850.000000       7830.000000
   860.000000       7810.000000
   870.000000       7780.000000
   880.000000       7760.000000
   890.000000       7740.000000
   900.000000       7710.000000
   910.000000       7690.000000
   920.000000       7670.000000
   930.000000       7650.000000
   940.000000       7630.000000
   950.000000       7610.000000
   960.000000       7590.000000
   970.000000       7580.000000
   980.000000       7560.000000
   990.000000       7540.000000
   1000.000000       7530.000000
   1002.500000       7501.576000
   1007.500000       7384.825000
   1012.500000       7491.230000
   1017.500000       7398.126000
   1022.500000       7411.427000
   1027.500000       7417.338000
   1032.500000       7309.455000
   1037.500000       7248.863000
   1042.500000       7263.641000
   1047.500000       7157.236000
   1052.500000       7104.034000
   1057.500000       6973.983000
   1062.500000       6910.435000
   1067.500000       6820.286000
   1072.500000       6843.932000
   1077.500000       6780.384000
   1082.500000       6671.023000
   1087.500000       6628.165000
   1092.500000       6567.573000
   1097.500000       6490.725000
   1102.500000       6461.168000
   1107.500000       6372.497000
   1112.500000       6344.418000
   1117.500000       6288.259000
   1122.500000       6279.392000
   1127.500000       6195.155000
   1132.500000       6177.421000
   1137.500000       6131.607000
   1142.500000       6065.104000
   1147.500000       6121.262000
   1152.500000       6093.183000
   1157.500000       6013.379000
   1162.500000       5924.708000
   1167.500000       5909.929000
   1172.500000       5929.142000
   1177.500000       5807.958000
   1182.500000       5745.888000
   1187.500000       5652.783000
   1192.500000       5728.154000
   1197.500000       5538.989000
   1202.500000       5632.093000
   1207.500000       5568.546000
   1212.500000       5565.590000
   1217.500000       5570.023000
   1222.500000       5524.210000
   1227.500000       5478.397000
   1232.500000       5437.017000
   1237.500000       5413.372000
   1242.500000       5345.390000
   1247.500000       5323.222000
   1252.500000       5268.541000
   1257.500000       5243.418000
   1262.500000       5210.905000
   1267.500000       5157.703000
   1272.500000       5153.270000
   1277.500000       5142.924000
   1282.500000       4947.848000
   1287.500000       5040.952000
   1292.500000       4981.838000
   1297.500000       5024.696000
   1302.500000       4953.759000
   1307.500000       4962.626000
   1312.500000       4865.088000
   1317.500000       4841.442000
   1322.500000       4835.531000
   1327.500000       4751.294000
   1332.500000       4761.638000
   1337.500000       4708.436000
   1342.500000       4715.825000
   1347.500000       4670.012000
   1352.500000       4641.932000
   1357.500000       4562.129000
   1362.500000       4544.395000
   1367.500000       4559.173000
   1372.500000       4572.473000
   1377.500000       4554.739000
   1382.500000       4553.261000
   1387.500000       4504.492000
   1392.500000       4302.027000
   1397.500000       4278.381000
   1402.500000       4223.700000
   1407.500000       4253.257000
   1412.500000       4201.533000
   1417.500000       4235.523000
   1422.500000       4179.365000
   1427.500000       4121.729000
   1432.500000       4198.577000
   1437.500000       4211.878000
   1442.500000       4109.906000
   1447.500000       4188.232000
   1452.500000       4140.941000
   1457.000000       4164.586000
   1462.000000       4065.570000
   1467.500000       4047.836000
   1472.500000       4002.023000
   1477.500000       4027.146000
   1482.500000       4040.447000
   1487.500000       4006.456000
   1492.500000       4095.128000
   1497.500000       4056.703000
   1502.500000       4013.846000
   1507.500000       4010.890000
   1512.500000       4075.915000
   1517.500000       4087.738000
   1522.500000       4078.871000
   1527.500000       4106.950000
   1532.500000       4084.782000
   1537.500000       4080.349000
   1542.500000       4053.748000
   1547.500000       4059.659000
   1552.500000       4022.712000
   1557.500000       3888.228000
   1562.500000       3919.263000
   1567.500000       3903.007000
   1572.500000       3993.156000
   1577.500000       3740.443000
   1582.500000       3733.054000
   1587.500000       3725.664000
   1592.500000       3851.282000
   1597.500000       3764.089000
   1605.000000       3738.965000
   1615.000000       3799.557000
   1625.000000       3675.417000
   1635.000000       3809.902000
   1645.000000       3607.436000
   1655.000000       3734.531000
   1665.000000       3611.870000
   1675.000000       3626.648000
   1685.000000       3535.021000
   1695.000000       3564.579000
   1705.000000       3492.164000
   1715.000000       3446.350000
   1725.000000       3384.281000
   1735.000000       3271.964000
   1745.000000       3255.708000
   1755.000000       3192.160000
   1765.000000       3138.957000
   1775.000000       3059.153000
   1785.000000       3020.729000
   1795.000000       2951.270000
   1805.000000       2874.422000
   1815.000000       2825.652000
   1825.000000       2787.229000
   1835.000000       2744.371000
   1845.000000       2691.168000
   1855.000000       2664.567000
   1865.000000       2595.108000
   1875.000000       2537.471000
   1885.000000       2524.171000
   1895.000000       2435.500000
   1905.000000       2457.668000
   1915.000000       2407.421000
   1925.000000       2374.908000
   1935.000000       2308.405000
   1945.000000       2252.246000
   1955.000000       2244.857000
   1965.000000       2200.521000
   1975.000000       2144.363000
   1985.000000       2119.240000
   1995.000000       2094.116000
   2005.000000       2082.293000
   2015.000000       2055.692000
   2025.000000       2003.967000
   2035.000000       1980.322000
   2045.000000       1977.366000
   2055.000000       1944.853000
   2065.000000       1915.296000
   2075.000000       1896.084000
   2085.000000       1869.483000
   2095.000000       1836.970000
   2105.000000       1831.058000
   2115.000000       1800.023000
   2125.000000       1774.900000
   2135.000000       1763.077000
   2145.000000       1737.954000
   2155.000000       1712.830000
   2165.000000       1675.884000
   2175.000000       1656.672000
   2185.000000       1638.938000
   2195.000000       1621.203000
   2205.000000       1582.779000
   2215.000000       1579.824000
   2225.000000       1541.399000
   2235.000000       1523.665000
   2245.000000       1502.975000
   2255.000000       1486.719000
   2265.000000       1454.797000
   2275.000000       1447.556000
   2285.000000       1416.964000
   2295.000000       1197.799000
   2305.000000       1273.613000
   2315.000000       1265.632000
   2325.000000       1088.586000
   2335.000000       1169.572000
   2345.000000       1119.621000
   2355.000000       1001.097000
   2365.000000       1083.118000
   2375.000000       1034.940000
   2385.000000       947.007400
   2395.000000       1006.269000
   2405.000000       984.249300
   2415.000000       905.036400
   2425.000000       940.652700
   2435.000000       916.859200
   2445.000000       869.863600
   2455.000000       858.484100
   2465.000000       864.100000
   2475.000000       830.552700
   2485.000000       746.610700
   2495.000000       733.310000
   2505.000000       746.906400
   2515.000000       697.546100
   2525.000000       718.827100
   2535.000000       717.940400
   2545.000000       704.935300
   2555.000000       698.876100
   2565.000000       703.161900
   2575.000000       710.255600
   2585.000000       684.097600
   2595.000000       691.043500
   2605.000000       694.885900
   2615.000000       681.141900
   2625.000000       669.466900
   2635.000000       673.604800
   2645.000000       668.136800
   2655.000000       658.678600
   2665.000000       647.151300
   2675.000000       656.905100
   2685.000000       650.107000
   2695.000000       635.032900
   2705.000000       637.397500
   2715.000000       631.486100
   2725.000000       628.826000
   2735.000000       615.081900
   2745.000000       616.116400
   2755.000000       612.274000
   2765.000000       603.998000
   2775.000000       594.392000
   2785.000000       594.096400
   2795.000000       592.470800
   2805.000000       585.968200
   2815.000000       576.953400
   2825.000000       573.702000
   2835.000000       571.189700
   2845.000000       564.096000
   2855.000000       558.184600
   2865.000000       553.012100
